Voltage(mV)	Current(mA/cm2)	Time(s)
-49.932200	21.611813	0.000000
-39.933998	20.991462	0.218750
-29.921800	20.844094	0.437500
-19.922299	20.691696	0.671875
-9.928110	20.527368	0.890625
0.076294	20.348188	1.109375
10.071000	20.168421	1.343750
20.065300	20.006316	1.562500
30.079801	19.858831	1.796875
40.073901	19.712281	2.015625
50.071701	19.542573	2.234375
60.083002	19.363626	2.468750
70.079900	19.165848	2.687500
80.074698	18.954152	2.921875
90.085998	18.749123	3.140625
100.080997	18.519766	3.359375
110.073000	18.265964	3.593750
120.090999	18.046666	3.812500
130.085006	17.812632	4.046875
140.080005	17.577310	4.265625
150.087997	17.327837	4.484375
160.083994	17.063508	4.718750
170.077994	16.781638	4.937500
180.087000	16.502105	5.171875
190.081999	16.207134	5.390625
200.091004	15.883743	5.609375
210.089996	15.591111	5.843750
220.080003	15.313918	6.062500
230.094999	15.008655	6.281250
240.086004	14.665029	6.515625
250.081003	14.349240	6.734375
260.095000	13.973100	6.968750
270.085990	13.638831	7.187500
280.081004	13.213217	7.406250
290.091008	12.819299	7.640625
300.087988	12.474269	7.859375
310.083985	12.174853	8.093750
320.095986	11.787251	8.312500
330.089986	11.422959	8.531250
340.083003	11.043392	8.765625
350.095004	10.665813	8.984375
360.087007	10.237111	9.218750
370.079994	9.856059	9.437500
380.093008	9.463322	9.656250
390.087992	9.021100	9.890625
400.097996	8.734714	10.109375
410.095006	8.434760	10.343750
420.087993	8.099977	10.562500
430.099010	7.866515	10.781250
440.093011	7.545696	11.015625
450.085998	7.135228	11.234375
460.103005	6.793953	11.468750
470.091999	6.347146	11.687500
480.091989	5.969930	11.906250
490.098000	5.539404	12.140625
500.092983	4.917228	12.359375
510.089993	4.512889	12.578125
520.098984	4.001181	12.812500
530.094028	3.164585	13.031250
540.084004	2.644433	13.265625
550.100982	1.844713	13.484375
560.092986	1.386632	13.703125
570.087016	0.784857	13.937500
580.102980	0.031524	14.156250
590.090990	-0.562752	14.390625
600.104988	-1.467415	14.609375
610.092998	-2.216585	14.828125
620.090008	-2.455345	15.093750
630.101979	-2.833064	15.328125
640.093029	-3.297591	15.546875
650.083005	-3.689134	15.781250
660.094976	-3.918316	16.000000
670.089006	-5.010257	16.218750
680.082023	-5.369836	16.453125
690.093994	-5.705275	16.671875
700.083971	-5.430503	16.906250
710.079014	-7.379906	17.125000
720.089972	-7.702597	17.343750
730.086029	-8.047556	17.578125
740.077019	-8.003743	17.796875
750.087023	-8.852456	18.015625
760.078013	-9.717299	18.250000
770.072997	-9.483134	18.468750
780.085027	-10.816713	18.703125
790.077984	-11.636351	18.921875
800.091982	-11.007673	19.140625
810.082972	-12.845848	19.375000
820.079029	-13.406549	19.593750
830.088973	-15.066199	19.828125
840.085030	-16.365965	20.046875
850.076020	-18.069824	20.265625
860.086024	-18.859416	20.500000
870.078981	-20.209240	20.718750
880.071998	-21.569824	20.953125
890.080988	-22.410644	21.171875
900.072992	-25.394152	21.390625
910.067976	-28.390527	21.625000
920.077980	-30.545147	21.843750
930.070996	-32.658947	22.078125
940.065980	-33.668656	22.296875
950.073004	-37.426665	22.515625
960.066020	-41.672982	22.750000
970.058978	-42.393450	22.968750
980.071008	-47.755673	23.203125
990.058005	-54.055907	23.421875
1000.069976	-60.506900	23.640625
1010.429978	-68.648070	23.875000
1020.439982	-83.024211	24.093750
1030.410051	-108.595785	24.328125
1040.380001	-183.707593	24.546875
1050.459981	-221.208195	24.796875
1060.439944	-235.054969	25.015625
1070.400000	-243.769599	25.234375
1080.379963	-250.535663	25.468750
1090.459943	-256.730995	25.687500
1100.469947	-259.473680	25.921875
1100.469947	-260.853802	26.140625
1090.450048	-261.464336	26.359375
1080.379963	-259.153218	26.593750
1070.410013	-258.547368	26.812500
1060.439944	-251.477203	27.046875
1050.480008	-250.431573	27.265625
1040.400028	-247.483038	27.484375
1030.429959	-243.486542	27.718750
1020.439982	-238.766077	27.937500
1010.450006	-235.520478	28.171875
1000.069976	-232.528656	28.390625
990.059018	-230.277186	28.609375
980.068982	-226.653807	28.843750
970.054984	-221.011692	29.062500
960.062981	-219.764918	29.296875
950.066984	-214.996481	29.515625
940.060973	-209.864338	29.734375
930.068016	-206.150877	29.968750
920.076013	-203.253799	30.234375
910.067022	-200.667838	30.453125
900.071025	-196.981282	30.671875
890.075028	-194.299421	30.906250
880.066991	-191.816374	31.125000
870.074987	-187.314611	31.359375
860.081017	-183.545031	31.578125
850.067973	-180.798828	31.796875
840.076983	-176.989479	32.031250
830.081999	-173.357898	32.250000
820.070982	-172.557897	32.484375
810.078025	-165.962576	32.703125
800.086975	-162.129830	32.921875
790.071011	-158.695907	33.156250
780.077994	-156.146196	33.375000
770.066977	-153.247953	33.609375
760.080993	-148.691226	33.828125
750.082016	-145.463153	34.046875
740.068018	-141.771935	34.281250
730.077982	-139.866667	34.500000
720.080972	-137.276022	34.734375
710.071027	-133.747366	34.953125
700.078011	-130.594147	35.171875
690.088987	-127.127481	35.406250
680.077016	-124.720464	35.625000
670.081019	-122.105267	35.859375
660.089016	-119.493566	36.078125
650.072992	-116.017772	36.296875
640.083015	-113.838009	36.546875
630.096972	-110.439651	36.765625
620.078981	-107.891694	37.000000
610.081971	-104.985848	37.218750
600.091994	-102.261288	37.453125
590.077996	-99.299530	37.671875
580.084026	-96.070640	37.890625
570.075989	-93.469353	38.125000
560.082972	-90.607017	38.343750
550.092995	-87.997075	38.578125
540.080011	-85.563976	38.796875
530.086994	-83.186435	39.015625
520.092010	-79.745612	39.250000
510.082006	-77.478364	39.468750
500.086010	-74.821405	39.703125
490.092009	-72.023624	39.921875
480.084002	-69.590993	40.156250
470.086008	-67.126197	40.375000
460.092008	-64.778828	40.593750
450.076014	-62.469355	40.828125
440.086991	-59.847834	41.046875
430.092007	-57.609006	41.265625
420.082003	-55.271931	41.500000
410.089999	-53.141168	41.718750
400.094002	-50.977074	41.953125
390.085012	-48.772399	42.171875
380.091012	-46.632634	42.390625
370.077997	-44.340935	42.625000
360.080004	-42.246900	42.843750
350.091010	-40.071578	43.078125
340.079010	-37.994620	43.296875
330.085009	-36.004560	43.515625
320.089996	-34.075323	43.750000
310.079008	-32.011695	43.968750
300.085992	-30.132631	44.203125
290.089011	-28.246199	44.421875
280.079007	-26.284328	44.640625
270.083994	-24.421405	44.875000
260.098010	-22.473567	45.093750
250.084013	-20.529707	45.359375
240.088999	-18.661286	45.593750
230.097994	-16.826667	45.812500
220.082998	-14.981403	46.031250
210.089996	-13.158363	46.265625
200.094000	-11.344971	46.484375
190.083995	-9.620515	46.718750
180.086002	-7.882596	46.937500
170.074999	-6.214445	47.156250
160.080001	-4.537743	47.390625
150.084004	-2.914047	47.609375
140.075997	-1.266082	47.843750
130.080998	0.391481	48.062500
120.085999	1.989205	48.281250
110.073000	3.608105	48.515625
100.078002	5.201427	48.734375
90.084203	6.773146	48.968750
80.072597	8.278761	49.187500
70.075803	9.763380	49.406250
60.080200	11.226936	49.640625
50.074302	12.675906	49.859375
40.077001	14.088654	50.093750
30.081701	15.512983	50.312500
20.066399	16.935906	50.531250
10.074500	18.283860	50.765625
0.074506	19.636023	50.984375
-9.923580	20.960234	51.218750
-19.918900	22.267836	51.437500
-29.919900	23.541052	51.656250
-39.931901	24.792632	51.890625
-49.931299	26.003392	52.109375
