Voltage(mV)	Current(mA/cm2)	Time(s)
-49.927201	23.743625	0
-39.926998	23.735439	0.234375
-29.915299	23.733217	0.453125
-19.915899	23.7338	0.671875
-9.91845	23.765263	0.90625
0.08285	23.765498	1.125
10.0788	23.771344	1.34375
20.070599	23.774854	1.578125
30.086	23.756141	1.796875
40.0813	23.755438	2.03125
50.079599	23.740001	2.25
60.090099	23.726668	2.46875
70.084304	23.718245	2.703125
80.081597	23.696724	2.921875
90.0902	23.688772	3.1875
100.084998	23.67614	3.421875
110.078998	23.644796	3.640625
120.094001	23.618714	3.875
130.089998	23.582806	4.09375
140.085995	23.541286	4.3125
150.095001	23.496258	4.546875
160.093993	23.458363	4.765625
170.086995	23.431463	4.984375
180.097997	23.420467	5.21875
190.093994	23.401402	5.4375
200.103	23.384679	5.65625
210.097	23.361053	5.890625
220.089003	23.333451	6.109375
230.103001	23.298129	6.34375
240.094006	23.269356	6.5625
250.08601	23.252516	6.78125
260.100991	23.224094	7.015625
270.09201	23.187135	7.234375
280.086011	23.144444	7.46875
290.098995	23.088655	7.6875
300.092012	23.048303	7.90625
310.086995	22.996375	8.140625
320.098013	22.949591	8.359375
330.089986	22.892513	8.59375
340.086997	22.830643	8.8125
350.098997	22.766199	9.03125
360.089988	22.689941	9.265625
370.088995	22.587252	9.484375
380.100012	22.520351	9.71875
390.096009	22.505263	9.9375
400.103986	22.467836	10.15625
410.100996	22.417894	10.390625
420.094997	22.336959	10.609375
430.103987	22.248655	10.84375
440.100014	22.152047	11.0625
450.091004	22.073216	11.28125
460.103989	21.96655	11.515625
470.097005	21.867251	11.734375
480.094999	21.753099	11.96875
490.10399	21.626549	12.1875
500.09799	21.476608	12.40625
510.092974	21.343158	12.640625
520.102978	21.250995	12.859375
530.097008	21.152748	13.09375
540.089011	21.034503	13.3125
550.104976	20.935907	13.53125
560.097992	20.777661	13.765625
570.089996	20.597076	13.984375
580.097973	20.432749	14.21875
590.093017	20.251228	14.4375
600.106001	20.061403	14.65625
610.096991	19.854502	14.890625
620.094001	19.63497	15.109375
630.097985	19.394854	15.34375
640.098989	19.159182	15.5625
650.085986	18.930059	15.78125
660.10201	18.6931	16.015625
670.095026	18.444093	16.234375
680.085003	18.175088	16.46875
690.099001	17.890527	16.6875
700.089991	17.579532	16.90625
710.083008	17.270526	17.140625
720.094025	16.952749	17.359375
730.090022	16.605614	17.59375
740.082026	16.241638	17.8125
750.096977	15.861638	18.03125
760.096014	15.476491	18.296875
770.08301	15.045146	18.53125
780.094028	14.595907	18.75
790.086985	14.138596	18.96875
800.101995	13.662456	19.203125
810.099006	13.172515	19.421875
820.091009	12.676257	19.65625
830.1	12.154035	19.875
840.094984	11.608877	20.109375
850.090027	11.021965	20.328125
860.096991	10.405965	20.546875
870.090008	9.751333	20.78125
880.083978	9.06014	21
890.097976	8.327614	21.21875
900.084019	7.564257	21.453125
910.079002	6.753251	21.671875
920.086026	5.902725	21.90625
930.078983	5.009134	22.125
940.07498	4.070093	22.34375
950.083971	3.079532	22.578125
960.079014	2.038129	22.796875
970.071018	0.942716	23.03125
980.082989	-0.214284	23.25
990.072012	-1.41586	23.46875
1000.079989	-2.678012	23.703125
1010.509968	-4.051263	23.921875
1020.509958	-5.426374	24.15625
1030.480027	-6.86524	24.375
1040.459991	-8.363719	24.609375
1050.53997	-9.937825	24.828125
1060.520053	-11.551088	25.046875
1070.490003	-13.216257	25.28125
1080.450058	-14.93345	25.5
1090.549946	-16.720584	25.71875
1100.520015	-18.532397	25.953125
1100.530028	-18.49462	26.171875
1090.549946	-16.578012	26.40625
1080.469966	-14.688655	26.625
1070.500016	-12.869591	26.859375
1060.529947	-11.101602	27.078125
1050.549984	-9.385859	27.296875
1040.449977	-7.707895	27.53125
1030.480027	-6.109778	27.75
1020.49005	-4.57145	27.96875
1010.499954	-3.092246	28.203125
1000.079989	-1.634655	28.421875
990.068972	-0.28864	28.65625
980.080009	0.996255	28.875
970.067978	2.23324	29.109375
960.074008	3.40607	29.328125
950.079978	4.523614	29.546875
940.073013	5.585813	29.78125
930.07803	6.580772	30
920.081973	7.523544	30.234375
910.075009	8.407392	30.453125
900.080025	9.241205	30.671875
890.087008	10.020526	30.90625
880.075991	10.751801	31.125
870.083988	11.434807	31.34375
860.090017	12.082339	31.578125
850.081027	12.709473	31.796875
840.089023	13.296491	32.03125
830.09398	13.838947	32.25
820.080996	14.345965	32.46875
810.087979	14.811461	32.703125
800.096989	15.249006	32.921875
790.084004	15.650643	33.15625
780.089021	16.024211	33.421875
770.078003	16.403977	33.640625
760.093987	16.728771	33.859375
750.092983	17.030644	34.09375
740.082026	17.320585	34.3125
730.090976	17.590175	34.546875
720.091999	17.842808	34.765625
710.081995	18.076258	34.984375
700.088024	18.290526	35.21875
690.097988	18.494035	35.4375
680.085003	18.717076	35.671875
670.093	18.928655	35.890625
660.100996	19.132281	36.109375
650.086999	19.324445	36.34375
640.094995	19.493801	36.5625
630.105019	19.65614	36.796875
620.091021	19.801286	37.015625
610.094011	19.942689	37.25
600.102007	20.082456	37.46875
590.089023	20.219182	37.6875
580.093026	20.359298	37.921875
570.084989	20.477778	38.140625
560.091019	20.59228	38.359375
550.099015	20.706083	38.59375
540.085018	20.84386	38.8125
530.094028	21.01731	39.046875
520.098984	21.187018	39.265625
510.089993	21.336023	39.484375
500.093997	21.468305	39.71875
490.099996	21.609708	39.9375
480.091989	21.720701	40.171875
470.093012	21.831345	40.390625
460.101008	21.942573	40.609375
450.087994	22.02421	40.84375
440.097004	22.110175	41.0625
430.101991	22.179065	41.296875
420.091003	22.261404	41.515625
410.097003	22.38807	41.734375
400.10199	22.519999	41.96875
390.094012	22.640818	42.1875
380.100012	22.731696	42.421875
370.086998	22.81766	42.640625
360.089988	22.883274	42.859375
350.100011	22.953098	43.09375
340.08801	23.012984	43.3125
330.092996	23.061053	43.546875
320.102006	23.096958	43.765625
310.090989	23.130643	43.984375
300.096989	23.189358	44.21875
290.098995	23.274034	44.4375
280.086994	23.349123	44.671875
270.092994	23.40772	44.890625
260.100007	23.444679	45.125
250.08601	23.471812	45.34375
240.090996	23.49497	45.5625
230.101004	23.498715	45.796875
220.087007	23.507486	46.015625
210.094005	23.508071	46.234375
200.097993	23.522455	46.46875
190.089002	23.536139	46.6875
180.093005	23.554387	46.921875
170.081005	23.602105	47.140625
160.089001	23.636725	47.359375
150.092006	23.660819	47.59375
140.082002	23.667603	47.8125
130.087003	23.671227	48.046875
120.094001	23.662807	48.265625
110.078	23.655907	48.53125
100.083001	23.65696	48.75
90.087503	23.639064	48.984375
80.077097	23.624443	49.203125
70.081398	23.629122	49.4375
60.085699	23.650174	49.65625
50.0791	23.651931	49.875
40.0814	23.672515	50.109375
30.0876	23.680818	50.328125
20.074099	23.69497	50.5625
10.0827	23.700351	50.78125
0.080109	23.696958	51
-9.91714	23.689941	51.234375
-19.913601	23.67614	51.453125
-29.9125	23.669942	51.6875
-39.923199	23.670761	51.90625
-49.9225	23.678947	52.125
